Time (s),Raw ADC,Voltage (V)
483.37,139,0.679
483.637,141,0.688
483.904,139,0.679
484.171,140,0.684
484.438,141,0.688
484.705,138,0.674
484.972,141,0.688
485.239,139,0.679
485.506,140,0.684
485.773,140,0.684
486.04,139,0.679
486.307,151,0.737
486.574,139,0.679
486.841,146,0.713
487.108,140,0.684
487.375,141,0.688
487.642,141,0.688
487.909,139,0.679
488.176,140,0.684
488.443,139,0.679
488.71,139,0.679
488.977,141,0.688
489.244,138,0.674
489.511,141,0.688
489.778,139,0.679
490.045,140,0.684
490.312,141,0.688
490.579,138,0.674
490.846,141,0.688
491.113,139,0.679
491.38,140,0.684
491.647,140,0.684
491.914,139,0.679
492.181,147,0.718
492.448,139,0.679
492.715,152,0.742
492.982,140,0.684
493.249,143,0.698
493.516,141,0.688
493.783,139,0.679
494.05,140,0.684
494.317,139,0.679
494.584,139,0.679
494.851,141,0.688
495.118,138,0.674
495.385,141,0.688
495.652,139,0.679
495.919,140,0.684
496.186,141,0.688
496.453,139,0.679
496.72,141,0.688
496.987,139,0.679
497.254,140,0.684
497.521,140,0.684
497.788,139,0.679
498.055,151,0.737
498.322,139,0.679
498.589,145,0.708
498.856,140,0.684
499.123,140,0.684
499.39,141,0.688
499.657,139,0.679
499.924,140,0.684
500.191,140,0.684
500.458,147,0.718
500.725,141,0.688
500.992,138,0.674
501.259,141,0.688
501.526,139,0.679
501.793,139,0.679
502.06,141,0.688
502.327,138,0.674
502.594,141,0.688
502.861,138,0.674
503.128,140,0.684
503.395,140,0.684
503.662,138,0.674
503.929,141,0.688
504.196,138,0.674
504.463,140,0.684
504.73,140,0.684
504.997,139,0.679
505.264,142,0.693
505.531,138,0.674
505.798,141,0.688
506.065,139,0.679
506.332,140,0.684
506.599,141,0.688
506.866,138,0.674
507.133,141,0.688
507.4,139,0.679
507.667,140,0.684
507.934,140,0.684
508.201,138,0.674
508.468,149,0.728
508.735,139,0.679
509.002,141,0.688
509.269,139,0.679
509.536,139,0.679
509.803,141,0.688
510.07,139,0.679
510.337,150,0.732
510.604,139,0.679
510.871,144,0.703
511.138,141,0.688
511.405,138,0.674
511.672,140,0.684
511.939,139,0.679
512.206,140,0.684
512.473,141,0.688
512.74,138,0.674
513.007,141,0.688
513.274,138,0.674
513.541,140,0.684
513.808,140,0.684
514.075,138,0.674
514.342,141,0.688
514.609,138,0.674
514.876,140,0.684
515.143,140,0.684
515.41,139,0.679
515.677,142,0.693
515.944,139,0.679
516.211,141,0.688
516.478,139,0.679
516.745,140,0.684
517.012,141,0.688
517.279,138,0.674
517.546,142,0.693
517.813,139,0.679
518.08,140,0.684
518.347,140,0.684
518.614,138,0.674
518.881,151,0.737
519.148,139,0.679
519.415,143,0.698
519.682,140,0.684
519.949,140,0.684
520.216,141,0.688
520.483,139,0.679
520.75,145,0.708
521.017,140,0.684
521.284,152,0.742
521.551,141,0.688
521.818,138,0.674
522.085,140,0.684
522.352,139,0.679
522.619,140,0.684
522.886,141,0.688
523.153,138,0.674
523.42,141,0.688
523.687,139,0.679
523.954,140,0.684
524.221,140,0.684
524.488,139,0.679
524.755,142,0.693
525.022,139,0.679
525.289,141,0.688
525.556,140,0.684
525.823,139,0.679
526.09,149,0.728
526.357,139,0.679
526.624,145,0.708
526.891,139,0.679
527.158,140,0.684
527.425,141,0.688
527.692,138,0.674
527.959,140,0.684
528.226,139,0.679
528.493,152,0.742
528.76,140,0.684
529.027,138,0.674
529.294,141,0.688
529.561,139,0.679
529.828,140,0.684
530.095,140,0.684
530.362,138,0.674
530.629,141,0.688
530.896,139,0.679
531.163,140,0.684
531.43,139,0.679
531.697,139,0.679
531.964,142,0.693
532.231,139,0.679
532.498,141,0.688
532.765,139,0.679
533.032,140,0.684
533.299,141,0.688
533.566,139,0.679
533.833,142,0.693
534.1,139,0.679
534.367,140,0.684
534.634,140,0.684
534.901,138,0.674
535.168,152,0.742
535.435,139,0.679
535.702,142,0.693
535.969,140,0.684
536.236,140,0.684
536.503,141,0.688
536.77,138,0.674
537.037,152,0.742
537.304,139,0.679
537.571,142,0.693
537.838,141,0.688
538.105,139,0.679
538.372,140,0.684
538.639,138,0.674
538.906,142,0.693
539.173,140,0.684
539.44,138,0.674
539.707,141,0.688
539.974,138,0.674
540.241,140,0.684
540.508,140,0.684
540.775,138,0.674
541.042,141,0.688
541.309,139,0.679
541.576,140,0.684
541.843,140,0.684
542.11,139,0.679
542.377,142,0.693
542.644,139,0.679
542.911,141,0.688
543.178,139,0.679
543.445,140,0.684
543.712,141,0.688
543.979,139,0.679
544.246,142,0.693
544.513,139,0.679
544.78,140,0.684
545.047,140,0.684
545.314,138,0.674
545.581,153,0.747
545.848,139,0.679
546.115,142,0.693
546.382,140,0.684
546.649,140,0.684
546.916,141,0.688
547.183,139,0.679
547.45,140,0.684
547.717,139,0.679
547.984,152,0.742
548.251,141,0.688
548.518,139,0.679
548.785,141,0.688
549.052,139,0.679
549.319,139,0.679
549.586,141,0.688
549.853,138,0.674
550.12,141,0.688
550.387,139,0.679
550.654,140,0.684
550.921,140,0.684
551.188,138,0.674
551.455,141,0.688
551.722,139,0.679
551.989,140,0.684
552.256,140,0.684
552.523,139,0.679
552.79,144,0.703
553.057,138,0.674
553.324,141,0.688
553.591,139,0.679
553.858,140,0.684
554.125,141,0.688
554.392,139,0.679
554.659,152,0.742
554.926,139,0.679
555.193,143,0.698
555.46,141,0.688
555.727,139,0.679
555.994,141,0.688
556.261,139,0.679
556.528,140,0.684
556.795,140,0.684
557.062,150,0.732
557.329,141,0.688
557.596,138,0.674
557.863,140,0.684
558.13,140,0.684
558.397,139,0.679
558.664,141,0.688
558.931,139,0.679
559.198,141,0.688
559.465,139,0.679
559.732,140,0.684
559.999,141,0.688
560.266,138,0.674
560.533,141,0.688
560.8,139,0.679
561.067,140,0.684
561.334,140,0.684
561.601,138,0.674
561.868,145,0.708
562.135,139,0.679
562.402,141,0.688
562.669,139,0.679
562.936,140,0.684
563.203,141,0.688
563.47,139,0.679
563.737,151,0.737
564.004,139,0.679
564.271,145,0.708
564.538,141,0.688
564.805,138,0.674
565.072,141,0.688
565.339,139,0.679
565.606,139,0.679
565.873,140,0.684
566.14,138,0.674
566.407,141,0.688
566.674,138,0.674
566.941,140,0.684
567.208,140,0.684
567.475,138,0.674
567.742,141,0.688
568.009,139,0.679
568.276,141,0.688
568.543,140,0.684
568.81,139,0.679
569.077,151,0.737
569.344,138,0.674
569.611,146,0.713
569.878,139,0.679
570.145,141,0.688
570.412,141,0.688
570.679,138,0.674
570.946,140,0.684
571.213,139,0.679
571.48,139,0.679
571.747,141,0.688
572.014,138,0.674
572.281,141,0.688
572.548,139,0.679
572.815,140,0.684
573.082,140,0.684
573.349,139,0.679
573.616,142,0.693
573.883,139,0.679
574.15,141,0.688
574.417,140,0.684
574.684,139,0.679
574.951,150,0.732
575.218,139,0.679
575.485,146,0.713
575.752,139,0.679
576.019,141,0.688
576.286,141,0.688
576.553,138,0.674
576.82,141,0.688
577.087,139,0.679
577.354,139,0.679
577.621,141,0.688
577.888,139,0.679
578.155,141,0.688
578.422,139,0.679
578.689,140,0.684
578.956,140,0.684
579.223,139,0.679
579.49,141,0.688
579.757,138,0.674
580.024,140,0.684
580.291,140,0.684
580.558,139,0.679
580.825,149,0.728
581.092,139,0.679
581.359,142,0.693
581.626,139,0.679
581.893,140,0.684
582.16,141,0.688
582.427,138,0.674
582.694,140,0.684
582.961,139,0.679
583.228,147,0.718
583.495,141,0.688
583.762,138,0.674
584.029,141,0.688
584.296,139,0.679
584.563,140,0.684
584.83,140,0.684
585.097,139,0.679
