Time (s),Raw ADC,Voltage (V)
1127.151,111,0.542
1127.42,111,0.542
1127.689,111,0.542
1127.958,110,0.537
1128.227,110,0.537
1128.496,111,0.542
1128.765,111,0.542
1129.034,111,0.542
1129.303,111,0.542
1129.572,111,0.542
1129.841,110,0.537
1130.11,111,0.542
1130.379,110,0.537
1130.648,115,0.562
1130.917,111,0.542
1131.186,111,0.542
1131.455,111,0.542
1131.724,111,0.542
1131.993,111,0.542
1132.262,110,0.537
1132.531,111,0.542
1132.8,110,0.537
1133.069,111,0.542
1133.338,110,0.537
1133.607,111,0.542
1133.876,111,0.542
1134.145,110,0.537
1134.414,111,0.542
1134.683,111,0.542
1134.952,111,0.542
1135.221,110,0.537
1135.49,111,0.542
1135.759,111,0.542
1136.028,111,0.542
1136.297,111,0.542
1136.566,111,0.542
1136.835,111,0.542
1137.104,111,0.542
1137.373,111,0.542
1137.642,111,0.542
1137.911,111,0.542
1138.18,111,0.542
1138.449,111,0.542
1138.718,110,0.537
1138.987,117,0.571
1139.256,111,0.542
1139.525,111,0.542
1139.794,110,0.537
1140.063,110,0.537
1140.332,110,0.537
1140.601,111,0.542
1140.87,112,0.547
1141.139,111,0.542
1141.408,117,0.571
1141.677,111,0.542
1141.946,114,0.557
1142.215,111,0.542
1142.484,111,0.542
1142.753,111,0.542
1143.022,111,0.542
1143.291,111,0.542
1143.56,111,0.542
1143.829,111,0.542
1144.098,111,0.542
1144.367,111,0.542
1144.636,111,0.542
1144.905,117,0.571
1145.174,111,0.542
1145.443,115,0.562
1145.712,111,0.542
1145.981,114,0.557
1146.25,111,0.542
1146.519,110,0.537
1146.788,111,0.542
1147.057,111,0.542
1147.326,111,0.542
1147.595,111,0.542
1147.864,111,0.542
1148.133,111,0.542
1148.402,110,0.537
1148.671,111,0.542
1148.94,111,0.542
1149.209,111,0.542
1149.478,115,0.562
1149.747,111,0.542
1150.016,111,0.542
1150.285,110,0.537
1150.554,111,0.542
1150.823,111,0.542
1151.092,111,0.542
1151.361,110,0.537
1151.63,111,0.542
1151.899,111,0.542
1152.168,110,0.537
1152.437,111,0.542
1152.706,111,0.542
1152.975,111,0.542
1153.244,111,0.542
1153.513,111,0.542
1153.782,111,0.542
1154.051,111,0.542
1154.32,110,0.537
1154.589,110,0.537
1154.858,111,0.542
1155.127,111,0.542
1155.396,111,0.542
1155.665,110,0.537
1155.934,111,0.542
1156.203,110,0.537
1156.472,111,0.542
1156.741,110,0.537
1157.01,111,0.542
1157.279,110,0.537
1157.548,111,0.542
1157.817,111,0.542
1158.086,111,0.542
1158.355,111,0.542
1158.624,110,0.537
1158.893,111,0.542
1159.162,111,0.542
1159.431,111,0.542
1159.7,111,0.542
1159.969,110,0.537
1160.238,111,0.542
1160.507,111,0.542
1160.776,111,0.542
1161.045,111,0.542
1161.314,112,0.547
1161.583,111,0.542
1161.852,117,0.571
1162.121,111,0.542
1162.39,111,0.542
1162.659,111,0.542
1162.928,111,0.542
1163.197,110,0.537
1163.466,111,0.542
1163.735,111,0.542
1164.004,110,0.537
1164.273,112,0.547
1164.542,111,0.542
1164.811,117,0.571
1165.08,111,0.542
1165.349,110,0.537
1165.618,111,0.542
1165.887,111,0.542
1166.156,110,0.537
1166.425,111,0.542
1166.694,111,0.542
1166.963,111,0.542
1167.232,111,0.542
1167.501,111,0.542
1167.77,110,0.537
1168.039,111,0.542
1168.308,117,0.571
1168.577,111,0.542
1168.846,111,0.542
1169.115,111,0.542
1169.384,111,0.542
1169.653,111,0.542
1169.922,111,0.542
1170.191,110,0.537
1170.46,111,0.542
1170.729,110,0.537
1170.998,111,0.542
1171.267,111,0.542
1171.536,111,0.542
1171.805,111,0.542
1172.074,111,0.542
1172.343,110,0.537
1172.612,111,0.542
1172.881,111,0.542
1173.15,111,0.542
1173.419,111,0.542
1173.688,111,0.542
1173.957,111,0.542
1174.226,111,0.542
1174.495,111,0.542
1174.764,111,0.542
1175.033,111,0.542
1175.302,110,0.537
1175.571,111,0.542
1175.84,111,0.542
1176.109,110,0.537
1176.378,111,0.542
1176.647,111,0.542
1176.916,111,0.542
1177.185,110,0.537
1177.454,111,0.542
1177.723,109,0.532
1177.992,111,0.542
1178.261,110,0.537
1178.53,111,0.542
1178.799,110,0.537
1179.068,111,0.542
1179.337,110,0.537
1179.606,111,0.542
1179.875,111,0.542
1180.144,111,0.542
1180.413,111,0.542
1180.682,118,0.576
1180.951,110,0.537
1181.22,114,0.557
1181.489,111,0.542
1181.758,111,0.542
1182.027,110,0.537
1182.296,111,0.542
1182.565,111,0.542
1182.834,111,0.542
1183.103,117,0.571
1183.372,111,0.542
1183.641,115,0.562
1183.91,111,0.542
1184.179,111,0.542
1184.448,111,0.542
1184.717,111,0.542
1184.986,112,0.547
1185.255,112,0.547
1185.524,111,0.542
1185.793,111,0.542
1186.062,111,0.542
1186.331,111,0.542
1186.6,111,0.542
1186.869,111,0.542
1187.138,112,0.547
1187.407,111,0.542
1187.676,111,0.542
1187.945,112,0.547
1188.214,111,0.542
1188.483,111,0.542
1188.752,112,0.547
1189.021,112,0.547
1189.29,112,0.547
1189.559,111,0.542
1189.828,113,0.552
1190.097,112,0.547
1190.366,118,0.576
1190.635,111,0.542
1190.904,111,0.542
1191.173,111,0.542
1191.442,112,0.547
1191.711,111,0.542
1191.98,112,0.547
1192.249,111,0.542
1192.518,111,0.542
1192.787,118,0.576
1193.056,110,0.537
1193.325,111,0.542
1193.594,111,0.542
1193.863,112,0.547
1194.132,111,0.542
1194.401,112,0.547
1194.67,111,0.542
1194.939,112,0.547
1195.208,111,0.542
1195.477,111,0.542
1195.746,112,0.547
1196.015,112,0.547
1196.284,112,0.547
1196.553,112,0.547
1196.822,111,0.542
1197.091,111,0.542
1197.36,111,0.542
1197.629,112,0.547
1197.898,112,0.547
1198.167,111,0.542
1198.436,112,0.547
1198.705,111,0.542
1198.974,112,0.547
1199.243,111,0.542
1199.512,111,0.542
1199.781,112,0.547
1200.05,113,0.552
1200.319,111,0.542
1200.588,117,0.571
1200.857,112,0.547
1201.126,112,0.547
1201.395,112,0.547
1201.664,112,0.547
1201.933,113,0.552
1202.202,112,0.547
1202.471,118,0.576
1202.74,112,0.547
1203.009,112,0.547
1203.278,112,0.547
1203.547,112,0.547
1203.816,111,0.542
1204.085,112,0.547
1204.354,112,0.547
1204.623,112,0.547
1204.892,112,0.547
1205.161,112,0.547
1205.43,112,0.547
1205.699,112,0.547
1205.968,112,0.547
1206.237,111,0.542
1206.506,112,0.547
1206.775,112,0.547
1207.044,111,0.542
1207.313,112,0.547
1207.582,111,0.542
1207.851,112,0.547
1208.12,112,0.547
1208.389,112,0.547
1208.658,112,0.547
1208.927,112,0.547
1209.196,112,0.547
1209.465,111,0.542
1209.734,112,0.547
1210.003,112,0.547
1210.272,118,0.576
1210.541,112,0.547
1210.81,116,0.566
1211.079,111,0.542
1211.348,112,0.547
1211.617,112,0.547
1211.886,112,0.547
1212.155,113,0.552
1212.424,112,0.547
1212.693,111,0.542
1212.962,112,0.547
1213.231,111,0.542
1213.5,112,0.547
1213.769,112,0.547
1214.038,111,0.542
1214.307,111,0.542
1214.576,112,0.547
1214.845,111,0.542
1215.114,112,0.547
1215.383,112,0.547
1215.652,112,0.547
1215.921,113,0.552
1216.19,111,0.542
1216.459,112,0.547
1216.728,111,0.542
1216.997,112,0.547
1217.266,112,0.547
1217.535,111,0.542
1217.804,111,0.542
1218.073,112,0.547
1218.342,118,0.576
1218.611,112,0.547
1218.88,112,0.547
1219.149,112,0.547
1219.418,112,0.547
1219.687,111,0.542
1219.956,111,0.542
1220.225,111,0.542
1220.494,112,0.547
1220.763,112,0.547
1221.032,112,0.547
1221.301,111,0.542
1221.57,112,0.547
1221.839,110,0.537
1222.108,112,0.547
1222.377,112,0.547
1222.646,112,0.547
1222.915,111,0.542
1223.184,111,0.542
1223.453,118,0.576
1223.722,111,0.542
1223.991,111,0.542
1224.26,112,0.547
1224.529,111,0.542
1224.798,111,0.542
1225.067,112,0.547
1225.336,111,0.542
1225.605,111,0.542
1225.874,112,0.547
1226.143,112,0.547
1226.412,111,0.542
1226.681,112,0.547
1226.95,112,0.547
1227.219,111,0.542
1227.488,112,0.547
1227.757,112,0.547
1228.026,112,0.547
1228.295,112,0.547
1228.564,112,0.547
1228.833,111,0.542
