Time (s),Raw ADC,Voltage (V)
429.076,426,2.08
429.381,426,2.08
429.686,426,2.08
429.991,425,2.075
430.296,425,2.075
430.601,425,2.075
430.906,425,2.075
431.211,426,2.08
431.516,426,2.08
431.821,426,2.08
432.126,425,2.075
432.431,425,2.075
432.736,425,2.075
433.041,425,2.075
433.346,425,2.075
433.651,425,2.075
433.956,425,2.075
434.261,425,2.075
434.566,426,2.08
434.871,426,2.08
435.176,426,2.08
435.481,426,2.08
435.786,426,2.08
436.091,426,2.08
436.396,425,2.075
436.701,426,2.08
437.006,425,2.075
437.311,425,2.075
437.616,425,2.075
437.921,425,2.075
438.226,425,2.075
438.531,425,2.075
438.836,425,2.075
439.141,425,2.075
439.446,425,2.075
439.751,425,2.075
440.056,425,2.075
440.361,425,2.075
440.666,425,2.075
440.971,426,2.08
441.276,426,2.08
441.581,425,2.075
441.886,425,2.075
442.191,425,2.075
442.496,425,2.075
442.801,425,2.075
443.106,425,2.075
443.411,425,2.075
443.716,425,2.075
444.021,425,2.075
444.326,425,2.075
444.631,425,2.075
444.936,425,2.075
445.241,424,2.07
445.546,424,2.07
445.851,424,2.07
446.156,425,2.075
446.461,425,2.075
446.766,425,2.075
447.071,425,2.075
447.376,425,2.075
447.681,425,2.075
447.986,425,2.075
448.291,425,2.075
448.596,425,2.075
448.901,425,2.075
449.206,424,2.07
449.511,424,2.07
449.816,425,2.075
450.121,425,2.075
450.426,425,2.075
450.731,425,2.075
451.036,425,2.075
451.341,425,2.075
451.646,425,2.075
451.951,425,2.075
452.256,425,2.075
452.561,425,2.075
452.866,424,2.07
453.171,424,2.07
453.476,425,2.075
453.781,424,2.07
454.086,424,2.07
454.391,424,2.07
454.696,424,2.07
455.001,424,2.07
455.306,424,2.07
455.611,424,2.07
455.916,424,2.07
456.221,424,2.07
456.526,424,2.07
456.831,424,2.07
457.136,424,2.07
457.441,424,2.07
457.746,425,2.075
458.051,425,2.075
458.356,425,2.075
458.661,424,2.07
458.966,424,2.07
459.271,424,2.07
459.576,424,2.07
459.881,425,2.075
460.186,425,2.075
460.491,424,2.07
460.796,424,2.07
461.101,425,2.075
461.406,424,2.07
461.711,424,2.07
462.016,425,2.075
462.321,424,2.07
462.626,424,2.07
462.931,424,2.07
463.236,425,2.075
463.541,424,2.07
463.846,424,2.07
464.151,424,2.07
464.456,424,2.07
464.761,424,2.07
465.066,424,2.07
465.371,424,2.07
465.676,424,2.07
465.981,425,2.075
466.286,424,2.07
466.591,424,2.07
466.896,424,2.07
467.201,424,2.07
467.506,424,2.07
467.811,424,2.07
468.116,423,2.065
468.421,423,2.065
468.726,423,2.065
469.031,424,2.07
469.336,424,2.07
469.641,424,2.07
469.946,424,2.07
470.251,424,2.07
470.556,424,2.07
470.861,424,2.07
471.166,424,2.07
471.471,424,2.07
471.776,424,2.07
472.081,424,2.07
472.386,424,2.07
472.691,424,2.07
472.996,424,2.07
473.301,424,2.07
473.606,423,2.065
473.911,423,2.065
474.216,423,2.065
474.521,424,2.07
474.826,424,2.07
475.131,424,2.07
475.436,424,2.07
475.741,424,2.07
476.046,424,2.07
476.351,424,2.07
476.656,424,2.07
476.961,424,2.07
477.266,424,2.07
477.571,423,2.065
477.876,423,2.065
478.181,423,2.065
478.486,423,2.065
478.791,423,2.065
479.096,424,2.07
479.401,423,2.065
479.706,423,2.065
480.011,424,2.07
480.316,425,2.075
480.621,424,2.07
480.926,424,2.07
481.231,423,2.065
481.536,423,2.065
481.841,423,2.065
482.146,424,2.07
482.451,424,2.07
482.756,424,2.07
483.061,424,2.07
483.366,424,2.07
483.671,424,2.07
483.976,424,2.07
484.281,424,2.07
484.586,423,2.065
484.891,423,2.065
485.196,423,2.065
485.501,423,2.065
485.806,423,2.065
486.111,423,2.065
486.416,423,2.065
486.721,423,2.065
487.026,423,2.065
487.331,423,2.065
487.636,423,2.065
487.941,424,2.07
488.246,424,2.07
488.551,424,2.07
488.856,424,2.07
489.161,424,2.07
489.466,423,2.065
489.771,423,2.065
490.076,423,2.065
490.381,423,2.065
490.686,423,2.065
490.991,423,2.065
491.296,423,2.065
491.601,423,2.065
491.906,423,2.065
492.211,423,2.065
492.516,423,2.065
492.821,423,2.065
493.126,423,2.065
493.431,424,2.07
493.736,423,2.065
494.041,423,2.065
494.346,423,2.065
494.651,423,2.065
494.956,423,2.065
495.261,423,2.065
495.566,423,2.065
495.871,423,2.065
496.176,424,2.07
496.481,423,2.065
496.786,426,2.08
497.091,423,2.065
497.396,424,2.07
497.701,423,2.065
498.006,423,2.065
498.311,423,2.065
498.616,423,2.065
498.921,423,2.065
499.226,423,2.065
499.531,424,2.07
499.836,424,2.07
500.141,423,2.065
500.446,423,2.065
500.751,424,2.07
501.056,423,2.065
501.361,423,2.065
501.666,423,2.065
501.971,423,2.065
502.276,423,2.065
502.581,423,2.065
502.886,423,2.065
503.191,423,2.065
503.496,423,2.065
503.801,423,2.065
504.106,423,2.065
504.411,423,2.065
504.716,423,2.065
505.021,423,2.065
505.326,423,2.065
505.631,424,2.07
505.936,423,2.065
506.241,424,2.07
506.546,423,2.065
506.851,423,2.065
507.156,423,2.065
507.461,423,2.065
507.766,423,2.065
508.071,423,2.065
508.376,423,2.065
508.681,423,2.065
508.986,423,2.065
509.291,423,2.065
509.596,423,2.065
509.901,423,2.065
510.206,423,2.065
510.511,423,2.065
510.816,423,2.065
511.121,423,2.065
511.426,423,2.065
511.731,423,2.065
512.036,423,2.065
512.341,423,2.065
512.646,423,2.065
512.951,423,2.065
513.256,423,2.065
513.561,422,2.061
513.866,422,2.061
514.171,422,2.061
514.476,423,2.065
514.781,423,2.065
515.086,423,2.065
515.391,422,2.061
515.696,422,2.061
516.001,422,2.061
516.306,423,2.065
516.611,423,2.065
516.916,423,2.065
517.221,422,2.061
517.526,422,2.061
517.831,422,2.061
518.136,423,2.065
518.441,423,2.065
518.746,423,2.065
519.051,423,2.065
519.356,423,2.065
519.661,423,2.065
519.966,423,2.065
520.271,423,2.065
520.576,423,2.065
520.881,423,2.065
521.186,423,2.065
521.491,423,2.065
521.796,423,2.065
522.101,423,2.065
522.406,423,2.065
522.711,424,2.07
523.016,424,2.07
523.321,424,2.07
523.626,423,2.065
523.931,423,2.065
524.236,423,2.065
524.541,423,2.065
524.846,422,2.061
525.151,422,2.061
525.456,422,2.061
525.761,423,2.065
526.066,423,2.065
526.371,423,2.065
526.676,423,2.065
526.981,423,2.065
527.286,423,2.065
527.591,423,2.065
527.896,423,2.065
528.201,423,2.065
528.506,423,2.065
528.811,422,2.061
529.116,422,2.061
529.421,423,2.065
529.726,422,2.061
530.031,422,2.061
530.336,422,2.061
530.641,422,2.061
530.946,422,2.061
