Time (s),Raw ADC,Voltage (V),Voltage_Filtered
979.456,128,0.625,0.566
979.723,116,0.566,0.566
979.99,119,0.581,0.571
980.257,117,0.571,0.571
980.524,116,0.566,0.571
980.791,127,0.62,0.571
981.058,115,0.562,0.571
981.325,121,0.591,0.571
981.592,116,0.566,0.571
981.859,117,0.571,0.571
982.126,118,0.576,0.571
982.393,115,0.562,0.571
982.66,120,0.586,0.571
982.927,116,0.566,0.571
983.194,117,0.571,0.571
983.461,117,0.571,0.571
983.728,115,0.562,0.571
983.995,120,0.586,0.571
984.262,115,0.562,0.566
984.529,117,0.571,0.566
984.796,116,0.566,0.566
985.063,116,0.566,0.566
985.33,121,0.591,0.566
985.597,115,0.562,0.566
985.864,117,0.571,0.571
986.131,116,0.566,0.571
986.398,117,0.571,0.571
986.665,118,0.576,0.571
986.932,115,0.562,0.571
987.199,118,0.576,0.571
987.466,115,0.562,0.571
987.733,117,0.571,0.571
988.0,117,0.571,0.571
988.267,115,0.562,0.571
988.534,118,0.576,0.571
988.801,115,0.562,0.566
989.068,117,0.571,0.566
989.335,116,0.566,0.566
989.602,116,0.566,0.566
989.869,119,0.581,0.566
990.136,115,0.562,0.566
990.403,118,0.576,0.566
990.67,116,0.566,0.566
990.937,116,0.566,0.566
991.204,117,0.571,0.566
991.471,115,0.562,0.566
991.738,118,0.576,0.571
992.005,115,0.562,0.571
992.272,117,0.571,0.571
992.539,117,0.571,0.571
992.806,115,0.562,0.571
993.073,118,0.576,0.571
993.34,115,0.562,0.566
993.607,117,0.571,0.566
993.874,116,0.566,0.566
994.141,116,0.566,0.566
994.408,119,0.581,0.566
994.675,115,0.562,0.566
994.942,117,0.571,0.566
995.209,116,0.566,0.566
995.476,116,0.566,0.566
995.743,117,0.571,0.566
996.01,115,0.562,0.566
996.277,118,0.576,0.571
996.544,115,0.562,0.571
996.811,117,0.571,0.571
997.078,117,0.571,0.571
997.345,115,0.562,0.571
997.612,118,0.576,0.571
997.879,115,0.562,0.566
998.146,117,0.571,0.566
998.413,116,0.566,0.566
998.68,116,0.566,0.566
998.947,118,0.576,0.566
999.214,115,0.562,0.566
999.481,117,0.571,0.566
999.748,116,0.566,0.566
1000.015,116,0.566,0.566
1000.284,116,0.566,0.566
1000.553,116,0.566,0.566
1000.822,116,0.566,0.566
1001.091,128,0.625,0.566
1001.36,115,0.562,0.566
1001.629,126,0.615,0.566
1001.898,115,0.562,0.581
1002.167,120,0.586,0.562
1002.436,115,0.562,0.571
1002.705,119,0.581,0.562
1002.974,115,0.562,0.571
1003.243,117,0.571,0.566
1003.512,115,0.562,0.566
1003.781,117,0.571,0.566
1004.05,116,0.566,0.566
1004.319,116,0.566,0.566
1004.588,116,0.566,0.566
1004.857,116,0.566,0.566
1005.126,127,0.62,0.566
1005.395,115,0.562,0.566
1005.664,130,0.635,0.566
1005.933,115,0.562,0.62
1006.202,132,0.645,0.562
1006.471,115,0.562,0.576
1006.74,127,0.62,0.566
1007.009,115,0.562,0.571
1007.278,118,0.576,0.566
1007.547,116,0.566,0.566
1007.816,117,0.571,0.566
1008.085,116,0.566,0.566
1008.354,116,0.566,0.566
1008.623,116,0.566,0.566
1008.892,115,0.562,0.566
1009.161,130,0.635,0.566
1009.43,115,0.562,0.566
1009.699,122,0.596,0.562
1009.968,115,0.562,0.581
1010.237,119,0.581,0.562
1010.506,115,0.562,0.571
1010.775,119,0.581,0.566
1011.044,115,0.562,0.571
1011.313,117,0.571,0.571
1011.582,116,0.566,0.571
1011.851,117,0.571,0.571
1012.12,120,0.586,0.571
1012.389,116,0.566,0.571
1012.658,128,0.625,0.571
1012.927,115,0.562,0.586
1013.196,131,0.64,0.566
1013.465,115,0.562,0.586
1013.734,126,0.615,0.562
1014.003,115,0.562,0.586
1014.272,120,0.586,0.562
1014.541,115,0.562,0.571
1014.81,122,0.596,0.571
1015.079,115,0.562,0.571
1015.348,117,0.571,0.571
1015.617,121,0.591,0.586
1015.886,117,0.571,0.586
1016.155,130,0.635,0.586
1016.424,120,0.586,0.586
1016.693,125,0.61,0.581
1016.962,115,0.562,0.581
1017.231,119,0.581,0.576
1017.5,115,0.562,0.576
1017.769,118,0.576,0.562
1018.038,115,0.562,0.576
1018.307,118,0.576,0.576
1018.576,115,0.562,0.576
1018.845,118,0.576,0.576
1019.114,130,0.635,0.576
1019.383,117,0.571,0.576
1019.652,120,0.586,0.576
1019.921,116,0.566,0.571
1020.19,118,0.576,0.571
1020.459,116,0.566,0.571
1020.728,117,0.571,0.566
1020.997,115,0.562,0.571
1021.266,117,0.571,0.566
1021.535,115,0.562,0.571
1021.804,118,0.576,0.562
1022.073,115,0.562,0.571
1022.342,118,0.576,0.576
1022.611,115,0.562,0.576
1022.88,118,0.576,0.571
1023.149,118,0.576,0.571
1023.418,117,0.571,0.571
1023.687,117,0.571,0.571
1023.956,116,0.566,0.571
1024.225,117,0.571,0.571
1024.494,116,0.566,0.571
1024.763,121,0.591,0.566
1025.032,115,0.562,0.571
1025.301,117,0.571,0.566
1025.57,115,0.562,0.571
1025.839,117,0.571,0.571
1026.108,115,0.562,0.571
1026.377,118,0.576,0.571
1026.646,117,0.571,0.571
1026.915,118,0.576,0.576
1027.184,122,0.596,0.576
1027.453,117,0.571,0.576
1027.722,119,0.581,0.576
1027.991,117,0.571,0.576
1028.26,118,0.576,0.571
1028.529,116,0.566,0.576
1028.798,118,0.576,0.571
1029.067,115,0.562,0.571
1029.336,118,0.576,0.566
1029.605,115,0.562,0.571
1029.874,117,0.571,0.562
1030.143,115,0.562,0.571
1030.412,118,0.576,0.571
1030.681,115,0.562,0.571
1030.95,118,0.576,0.571
1031.219,117,0.571,0.571
1031.488,117,0.571,0.571
1031.757,117,0.571,0.571
1032.026,116,0.566,0.571
1032.295,117,0.571,0.571
1032.564,116,0.566,0.571
1032.833,117,0.571,0.566
1033.102,115,0.562,0.571
1033.371,118,0.576,0.566
1033.64,115,0.562,0.571
1033.909,118,0.576,0.562
1034.178,115,0.562,0.576
1034.447,118,0.576,0.576
1034.716,115,0.562,0.576
1034.985,118,0.576,0.576
1035.254,120,0.586,0.576
1035.523,117,0.571,0.576
1035.792,119,0.581,0.576
1036.061,117,0.571,0.576
1036.33,119,0.581,0.571
1036.599,116,0.566,0.576
1036.868,118,0.576,0.571
1037.137,115,0.562,0.576
1037.406,121,0.591,0.566
1037.675,115,0.562,0.576
1037.944,118,0.576,0.562
1038.213,115,0.562,0.576
1038.482,118,0.576,0.562
1038.751,115,0.562,0.571
1039.02,118,0.576,0.571
1039.289,115,0.562,0.571
1039.558,117,0.571,0.571
1039.827,125,0.61,0.571
1040.096,117,0.571,0.571
1040.365,130,0.635,0.571
1040.634,116,0.566,0.601
1040.903,127,0.62,0.571
1041.172,115,0.562,0.591
1041.441,123,0.601,0.566
1041.71,115,0.562,0.581
1041.979,121,0.591,0.562
1042.248,115,0.562,0.581
1042.517,119,0.581,0.562
1042.786,115,0.562,0.571
1043.055,119,0.581,0.566
1043.324,115,0.562,0.571
1043.593,117,0.571,0.566
1043.862,116,0.566,0.566
1044.131,121,0.591,0.566
1044.4,116,0.566,0.566
1044.669,116,0.566,0.566
1044.938,123,0.601,0.566
1045.207,115,0.562,0.566
1045.476,129,0.63,0.566
1045.745,115,0.562,0.601
1046.014,130,0.635,0.562
1046.283,115,0.562,0.581
1046.552,123,0.601,0.571
1046.821,115,0.562,0.571
1047.09,119,0.581,0.571
1047.359,117,0.571,0.571
1047.628,117,0.571,0.571
1047.897,116,0.566,0.571
1048.166,117,0.571,0.571
1048.435,116,0.566,0.566
1048.704,116,0.566,0.566
1048.973,128,0.625,0.566
1049.242,115,0.562,0.566
1049.511,127,0.62,0.566
1049.78,115,0.562,0.576
1050.049,120,0.586,0.562
1050.318,115,0.562,0.576
1050.587,118,0.576,0.562
1050.856,115,0.562,0.571
1051.125,118,0.576,0.566
1051.394,115,0.562,0.571
1051.663,117,0.571,0.571
1051.932,116,0.566,0.571
1052.201,117,0.571,0.571
1052.47,127,0.62,0.571
1052.739,116,0.566,0.571
1053.008,130,0.635,0.571
1053.277,115,0.562,0.596
1053.546,129,0.63,0.566
1053.815,115,0.562,0.586
1054.084,122,0.596,0.562
1054.353,115,0.562,0.581
1054.622,120,0.586,0.562
1054.891,115,0.562,0.571
1055.16,119,0.581,0.566
1055.429,115,0.562,0.571
1055.698,117,0.571,0.566
1055.967,116,0.566,0.566
1056.236,117,0.571,0.566
1056.505,116,0.566,0.571
1056.774,116,0.566,0.571
1057.043,117,0.571,0.571
1057.312,119,0.581,0.571
1057.581,125,0.61,0.571
1057.85,115,0.562,0.581
1058.119,128,0.625,0.581
1058.388,115,0.562,0.61
1058.657,130,0.635,0.562
1058.926,115,0.562,0.571
1059.195,132,0.645,0.566
1059.464,115,0.562,0.571
1059.733,117,0.571,0.566
1060.002,116,0.566,0.571
1060.271,117,0.571,0.571
1060.54,116,0.566,0.571
1060.809,120,0.586,0.571
1061.078,117,0.571,0.571
1061.347,116,0.566,0.571
1061.616,117,0.571,0.571
1061.885,115,0.562,0.571
1062.154,117,0.571,0.566
1062.423,115,0.562,0.571
1062.692,117,0.571,0.562
1062.961,115,0.562,0.571
1063.23,117,0.571,0.566
1063.499,114,0.557,0.571
1063.768,118,0.576,0.571
1064.037,116,0.566,0.571
1064.306,117,0.571,0.571
1064.575,117,0.571,0.571
1064.844,116,0.566,0.571
1065.113,117,0.571,0.571
1065.382,116,0.566,0.571
1065.651,117,0.571,0.566
1065.92,115,0.562,0.571
1066.189,117,0.571,0.566
1066.458,115,0.562,0.571
1066.727,121,0.591,0.562
1066.996,115,0.562,0.571
1067.265,117,0.571,0.571
1067.534,115,0.562,0.571
1067.803,118,0.576,0.571
1068.072,117,0.571,0.571
1068.341,117,0.571,0.571
1068.61,117,0.571,0.571
1068.879,116,0.566,0.571
1069.148,117,0.571,0.571
1069.417,116,0.566,0.571
1069.686,117,0.571,0.566
1069.955,115,0.562,0.571
1070.224,118,0.576,0.566
1070.493,115,0.562,0.571
1070.762,118,0.576,0.562
1071.031,115,0.562,0.576
1071.3,118,0.576,0.576
1071.569,115,0.562,0.576
1071.838,118,0.576,0.571
1072.107,118,0.576,0.571
1072.376,117,0.571,0.571
1072.645,117,0.571,0.571
1072.914,116,0.566,0.571
1073.183,117,0.571,0.571
1073.452,116,0.566,0.571
1073.721,117,0.571,0.566
1073.99,115,0.562,0.571
1074.259,121,0.591,0.566
1074.528,115,0.562,0.571
1074.797,118,0.576,0.562
1075.066,115,0.562,0.576
1075.335,118,0.576,0.576
1075.604,115,0.562,0.576
1075.873,118,0.576,0.571
1076.142,118,0.576,0.571
1076.411,117,0.571,0.571
1076.68,117,0.571,0.571
1076.949,116,0.566,0.571
1077.218,120,0.586,0.571
1077.487,116,0.566,0.571
1077.756,117,0.571,0.566
1078.025,115,0.562,0.571
1078.294,117,0.571,0.566
1078.563,115,0.562,0.571
1078.832,118,0.576,0.562
1079.101,115,0.562,0.571
1079.37,118,0.576,0.576
1079.639,115,0.562,0.576
1079.908,118,0.576,0.576
1080.177,128,0.625,0.576
1080.446,117,0.571,0.576
1080.715,121,0.591,0.576
1080.984,117,0.571,0.571
1081.253,119,0.581,0.571
